# wavelength [nm] 	 shutter speed [ms]
5.000000000000000000e+02 5.550000000000000000e+03
5.100000000000000000e+02 4.150000000000000000e+03
5.200000000000000000e+02 3.950000000000000000e+03
5.300000000000000000e+02 3.150000000000000000e+03
5.400000000000000000e+02 3.150000000000000000e+03
5.500000000000000000e+02 2.550000000000000000e+03
5.600000000000000000e+02 2.550000000000000000e+03
5.700000000000000000e+02 2.350000000000000000e+03
5.800000000000000000e+02 2.000000000000000000e+03
5.900000000000000000e+02 1.850000000000000000e+03
6.000000000000000000e+02 1.750000000000000000e+03
6.100000000000000000e+02 1.650000000000000000e+03
6.200000000000000000e+02 1.450000000000000000e+03
6.300000000000000000e+02 1.250000000000000000e+03
6.400000000000000000e+02 1.100000000000000000e+03
6.500000000000000000e+02 1.100000000000000000e+03
6.600000000000000000e+02 9.500000000000000000e+02
6.700000000000000000e+02 8.000000000000000000e+02
6.800000000000000000e+02 6.500000000000000000e+02
6.900000000000000000e+02 7.000000000000000000e+02
7.000000000000000000e+02 5.500000000000000000e+02
7.100000000000000000e+02 1.600000000000000000e+03
7.200000000000000000e+02 1.500000000000000000e+03
7.300000000000000000e+02 1.700000000000000000e+03
7.400000000000000000e+02 2.050000000000000000e+03
7.500000000000000000e+02 2.300000000000000000e+03
7.600000000000000000e+02 2.550000000000000000e+03
7.700000000000000000e+02 3.150000000000000000e+03
7.800000000000000000e+02 4.550000000000000000e+03
7.900000000000000000e+02 4.350000000000000000e+03
8.000000000000000000e+02 5.350000000000000000e+03
8.100000000000000000e+02 9.150000000000000000e+03
8.200000000000000000e+02 7.750000000000000000e+03
8.300000000000000000e+02 1.515000000000000000e+04
8.400000000000000000e+02 4.735000000000000000e+04
8.500000000000000000e+02 9.615000000000000000e+04
