# wavelength [nm] 	 shutter speed [ms]
5.000000000000000000e+02 7.450989839999998367e+03
5.100000000000000000e+02 5.154904440000009345e+03
5.200000000000000000e+02 4.968794880000001285e+03
5.300000000000000000e+02 4.230964079999979731e+03
5.400000000000000000e+02 4.283344800000006217e+03
5.500000000000000000e+02 3.525069240000009813e+03
5.600000000000000000e+02 3.277290240000027552e+03
5.700000000000000000e+02 3.072459600000031060e+03
5.800000000000000000e+02 2.631412980000008247e+03
5.900000000000000000e+02 2.423829239999986385e+03
6.000000000000000000e+02 2.287275479999995696e+03
6.100000000000000000e+02 2.176600860000005014e+03
6.200000000000000000e+02 1.883120399999990696e+03
6.300000000000000000e+02 1.600652340000015101e+03
6.400000000000000000e+02 1.362784500000007029e+03
6.500000000000000000e+02 1.377100619999988339e+03
6.600000000000000000e+02 1.169229599999991478e+03
6.700000000000000000e+02 9.938451599999962127e+02
6.800000000000000000e+02 8.664364800000039395e+02
6.900000000000000000e+02 8.176707000000042171e+02
7.000000000000000000e+02 6.745095000000028449e+02
7.100000000000000000e+02 2.150721719999984089e+03
7.200000000000000000e+02 2.011390919999990729e+03
7.300000000000000000e+02 2.428234199999993507e+03
7.400000000000000000e+02 2.768230079999993904e+03
7.500000000000000000e+02 3.120579000000023370e+03
7.600000000000000000e+02 3.602491199999982200e+03
7.700000000000000000e+02 4.501533960000015213e+03
7.800000000000000000e+02 6.402058739999996760e+03
7.900000000000000000e+02 6.003098639999981970e+03
8.000000000000000000e+02 7.056458639999924344e+03
8.100000000000000000e+02 1.128385566000006656e+04
8.200000000000000000e+02 1.105589897999999084e+04
8.300000000000000000e+02 2.024031240000011167e+04
8.400000000000000000e+02 6.045448499999984051e+04
8.500000000000000000e+02 1.292801894999996875e+05
