# wavelength [nm] 	 shutter speed [ms]
5.000000000000000000e+02 7.232427471360017080e+03
5.100000000000000000e+02 5.003693909760011593e+03
5.200000000000000000e+02 4.823043563520010139e+03
5.300000000000000000e+02 4.264811792639986379e+03
5.400000000000000000e+02 3.997788480000008349e+03
5.500000000000000000e+02 3.553269793920001575e+03
5.600000000000000000e+02 3.119980308480028270e+03
5.700000000000000000e+02 3.097039276800026528e+03
5.800000000000000000e+02 2.554224865920013144e+03
5.900000000000000000e+02 2.443219873919991187e+03
6.000000000000000000e+02 2.262877874880001400e+03
6.100000000000000000e+02 2.234643549600004008e+03
6.200000000000000000e+02 1.898185363199995663e+03
6.300000000000000000e+02 1.643336402400015004e+03
6.400000000000000000e+02 1.373686776000009786e+03
6.500000000000000000e+02 1.388117424959991013e+03
6.600000000000000000e+02 1.134932198399994377e+03
6.700000000000000000e+02 1.076003026559995988e+03
6.800000000000000000e+02 8.733679718400064758e+02
6.900000000000000000e+02 8.547384384000060891e+02
7.000000000000000000e+02 7.050872640000034153e+02
7.100000000000000000e+02 2.007340271999987635e+03
7.200000000000000000e+02 1.914844155839989071e+03
7.300000000000000000e+02 2.175697843199999625e+03
7.400000000000000000e+02 2.687028664319995187e+03
7.500000000000000000e+02 2.854289592000011453e+03
7.600000000000000000e+02 3.429571622399991156e+03
7.700000000000000000e+02 4.033374428160008392e+03
7.800000000000000000e+02 5.975254824000012377e+03
7.900000000000000000e+02 5.602892063999979655e+03
8.000000000000000000e+02 6.586028063999947335e+03
8.100000000000000000e+02 1.011033467136006220e+04
8.200000000000000000e+02 1.011246226703997309e+04
8.300000000000000000e+02 1.926877740480014836e+04
8.400000000000000000e+02 5.191025111999984074e+04
8.500000000000000000e+02 1.037688987719996658e+05
